File: data/amino_silane_silica_mod_343.csv
comments: Amino silane silica CO2 adsorption, modelled, (343),
DataType: CO2_Adsorption_Isotherm,
Chart_label: CO2 Adsorption,
x_label: CO2 Pressure (kPa),
y_label: CO2 Adsorbed (mol/kg),
seriesnames: CO2 Adsorption on amino_silane_Silica,
x_values,y_values
0.051246,0.0726223
0.097324,0.145316
0.14678,0.21702
0.21276,0.285923
0.30539,0.354559
0.43305,0.419502
0.60726,0.477623
0.81824,0.532694
1.1018,0.581032
1.874,0.663304
2.6998,0.718642
3.7635,0.76912
4.9321,0.806488
6.0547,0.834269
7.5831,0.860846
9.127,0.884078
10.685,0.902718
15.89,0.948068
21.06,0.980085
26.156,1.00541
31.224,1.02726
37.606,1.04978
42.704,1.06588
47.736,1.0801
52.745,1.09321
57.761,1.10664
62.791,1.11957
67.811,1.12996
72.835,1.14177
77.858,1.15181
82.883,1.16099
87.902,1.16884
92.914,1.17816
97.924,1.18762
102.95,1.19609