File: data/amino_silane_silica_mod_383.csv
comments: Amino silane silica CO2 adsorption modeller (383  K) data published in https://doi.org/10.1016/j.cej.2020.127121,
DataType: CO2_Adsorption_Isotherm,
Chart_label: CO2 Adsorption,
x_label: CO2 Pressure (kPa),
y_label: CO2 Adsorbed (mol/kg),
seriesnames: CO2 Adsorption on amino_silane_Silica  (343 K mod),
x_values,y_values
0.63435,0.0224144
1.314,0.0452727
2.5232,0.08325893
3.8894,0.122518
4.9954,0.151812
6.3843,0.185836
7.5387,0.21204
8.9797,0.242419
10.534,0.272625
15.473,0.354431
20.69,0.423398
25.883,0.479566
31.019,0.526206
37.424,0.575188
42.545,0.60876
47.615,0.63817
52.676,0.664431
57.691,0.687925
62.742,0.709447
67.756,0.729003
72.783,0.747055
77.822,0.7637932
82.838,0.779274
87.874,0.793772
92.875,0.807248
97.902,0.819968
102.94,0.83197