File: data/amino_silane_silica_mod_363.csv
comments: Amino silane silica CO2 adsorption modelled (363 K) data published in https://doi.org/10.1016/j.cej.2020.127121,
DataType: CO2_Adsorption_Isotherm,
Chart_label: CO2 Adsorption,
x_label: CO2 Pressure (kPa),
y_label: CO2 Adsorbed (mol/kg),
seriesnames: CO2 Adsorption on amino_silane_Silica  (363 K mod),,
x_values,y_values
0.23169,0.0527786
0.47098,0.100903
0.7058,0.142891
0.95804,0.183164
1.2498,0.224539
1.896,0.30071
2.5937,0.365481
3.6069,0.437994
4.7503,0.499792
5.8888,0.547614
6.9879,0.584965
8.4638,0.625684
9.6357,0.652476
11.11,0.681139
15.715,0.747751
20.862,0.799265
26.009,0.838003
31.131,0.868936
37.51,0.900544
42.636,0.922026
47.662,0.94056
52.707,0.957163
57.746,0.972109
62.777,0.985668
67.8,0.998051
72.829,1.00946
77.843,1.01996
82.865,1.02973
87.904,1.03886
92.907,1.04732
97.931,1.05528
102.95,1.06275