File: data/amino_silane_silica_exp_383.csv
comments: Amino silane silica CO2 adsorption modelled (383 K) data published in https://doi.org/10.1016/j.cej.2020.127121,
DataType: CO2_Adsorption_Isotherm,
Chart_label: CO2 Adsorption,
x_label: CO2 Pressure (kPa),
y_label: CO2 Adsorbed (mol/kg),
seriesnames: CO2 Adsorption on amino_silane_Silica  (383 K exp),
x_values,y_values
0.63435,0.0191139
1.314,0.03474286
2.5232,0.0665846
3.8894,0.109906
4.9954,0.144206
6.3843,0.187469
7.5387,0.218777
8.9797,0.255284
10.534,0.289892
15.473,0.373283
20.69,0.438985
25.883,0.488861
31.019,0.530643
37.424,0.570553
42.545,0.601277
47.615,0.626917
52.676,0.648589
57.691,0.67026
62.742,0.69055
67.756,0.709011
72.783,0.726803
77.822,0.742142
82.838,0.759979
87.874,0.774249
92.875,0.788696
97.902,0.802475
102.94,0.813311