File: data/amino_silane_silica_exp_363.csv
comments: Amino silane silica CO2 adsorption experimental (363  K) data published in https://doi.org/10.1016/j.cej.2020.127121,
DataType: CO2_Adsorption_Isotherm,
Chart_label: CO2 Adsorption,
x_label: CO2 Pressure (kPa),
y_label: CO2 Adsorbed (mol/kg),
seriesnames: CO2 Adsorption on amino_silane_Silica  (363 K exp),,
x_values,y_values
0.051246,0.0955273
0.097324,0.164434
0.14678,0.22538
0.21276,0.291324
0.30539,0.36312
0.43305,0.4361
0.60726,0.506318
0.81824,0.565201
1.1018,0.619403
1.874,0.702937
2.6998,0.751402
3.7635,0.791033
4.9321,0.82153
6.0547,0.844299
7.5831,0.869479
9.127,0.890671
10.685,0.909174
15.89,0.958113
21.06,0.994771
26.156,1.02367
31.224,1.04742
37.606,1.07217
42.704,1.0888
47.736,1.10307
52.745,1.11557
57.761,1.12667
62.791,1.13661
67.811,1.14553
72.835,1.15359
77.858,1.16091
82.883,1.16759
87.902,1.1737
92.914,1.17931
97.924,1.18449
12.95,1.18929