File: data/pei_carbon_exp_343.csv
comments: Polyethyleneimine on multiwalled carbon nanotubes (343 K) published in https://doi.org/10.3389/fclim.2021.733499,
DataType: CO2_Adsorption_Isotherm,
Chart_label: CO2 Adsorption,
x_label: CO2 Pressure (kPa),
y_label: CO2 Adsorbed (mol/kg),
seriesnames: CO2 Adsorption on polyethyleneimine on multiwalled carbon nanotubes (343 K exp),
x_values,y_values
0.078185,0.0372895
0.38982,0.0891614
0.80215,0.130908
1.283,0.170715
2.3274,0.223695
3.4561,0.26422
4.5852,0.293539
6.0855,0.322725
7.6631,0.345895
9.2036,0.364463
10.736,0.379669
16.038,0.410254
21.656,0.43078
26.671,0.444897
31.676,0.457557
38.027,0.469686
43.077,0.476598
47.918,0.48458
52.968,0.490644
57.923,0.496887
62.934,0.502818
67.902,0.508615
72.9,0.514367
77.921,0.519406
82.912,0.524445
87.953,0.530509
92.928,0.535415
97.917,0.540052