File: data/pei_carbon_exp_363.csv
comments: Polyethyleneimine on multiwalled carbon nanotubes (363 K) published in https://doi.org/10.3389/fclim.2021.733499
DataType: CO2_Adsorption_Isotherm
Chart_label: CO2 Adsorption
x_label: CO2 Pressure (kPa)
y_label: CO2 Adsorbed (mol/kg)
seriesnames: CO2 Adsorption on polyethyleneimine on multiwalled carbon nanotubes (363 K mod)
x_values,y_values
0.036322,0.0115912
0.47554,0.05327836
1.1211,0.080301
2.4771,0.125557
3.6188,0.155438
5.1138,0.186175
6.6304,0.214527
8.1844,0.237309
9.6895,0.258802
11.2,0.279707
15.954,0.323188
21.535,0.364186
26.548,0.391771
31.654,0.415529
37.98,0.440951
43.006,0.460723
47.964,0.475126
52.915,0.490109
57.925,0.503398
62.916,0.516195
67.945,0.527834
72.938,0.538804
77.907,0.548658
82.904,0.558246
87.924,0.567431
92.925,0.576394
97.929,0.58451